Lag (seconds)	Frequency (Hz)	Level
0.000023	44100.000000	244.158646
0.000045	22050.000000	219.814377
0.000068	14700.000000	180.998093
0.000091	11025.000000	132.238602
0.000113	8820.000000	76.195282
0.000136	7350.000000	16.912645
0.000159	6300.000000	-41.715424
0.000181	5512.500000	-95.928680
0.000204	4900.000000	-142.441238
0.000227	4410.000000	-178.502319
0.000249	4009.090909	-202.189560
0.000272	3675.000000	-212.445938
0.000295	3392.307692	-209.221176
0.000317	3150.000000	-193.226456
0.000340	2940.000000	-165.976746
0.000363	2756.250000	-129.830200
0.000385	2594.117647	-87.487625
0.000408	2450.000000	-41.905861
0.000431	2321.052632	3.842083
0.000454	2205.000000	46.837940
0.000476	2100.000000	84.366371
0.000499	2004.545455	114.277504
0.000522	1917.391304	135.207474
0.000544	1837.500000	146.459259
0.000567	1764.000000	147.997223
0.000590	1696.153846	140.419724
0.000612	1633.333333	124.886810
0.000635	1575.000000	102.984367
0.000658	1520.689655	76.601707
0.000680	1470.000000	47.791321
0.000703	1422.580645	18.581980
0.000726	1378.125000	-9.138637
0.000748	1336.363636	-33.738598
0.000771	1297.058824	-53.949432
0.000794	1260.000000	-68.907318
0.000816	1225.000000	-78.174988
0.000839	1191.891892	-81.743408
0.000862	1160.526316	-79.987793
0.000884	1130.769231	-73.614967
0.000907	1102.500000	-63.576267
0.000930	1075.609756	-50.911278
0.000952	1050.000000	-36.781933
0.000975	1025.581395	-22.356112
0.000998	1002.272727	-8.641527
0.001020	980.000000	3.524335
0.001043	958.695652	13.532853
0.001066	938.297872	21.013708
0.001088	918.750000	25.849312
0.001111	900.000000	28.154722
0.001134	882.000000	28.224052
0.001156	864.705882	26.505136
0.001179	848.076923	23.518848
0.001202	832.075472	19.819950
0.001224	816.666667	15.942453
0.001247	801.818182	12.348380
0.001270	787.500000	9.392903
0.001293	773.684211	7.300238
0.001315	760.344828	6.147266
0.001338	747.457627	5.893311
0.001361	735.000000	6.364404
0.001383	722.950820	7.334407
0.001406	711.290323	8.477650
0.001429	700.000000	9.405649
0.001451	689.062500	9.789804
0.001474	678.461538	9.357459
0.001497	668.181818	7.907950
0.001519	658.208955	5.361858
0.001542	648.529412	1.745828
0.001565	639.130435	-2.790411
0.001587	630.000000	-8.012910
0.001610	621.126761	-13.574690
0.001633	612.500000	-19.086679
0.001655	604.109589	-24.118587
0.001678	595.945946	-28.258299
0.001701	588.000000	-31.116943
0.001723	580.263158	-32.386497
0.001746	572.727273	-31.845530
0.001769	565.384615	-29.395861
0.001791	558.227848	-25.052965
0.001814	551.250000	-18.975374
0.001837	544.444444	-11.401237
0.001859	537.804878	-2.681229
0.001882	531.325301	6.686050
0.001905	525.000000	16.135277
0.001927	518.823529	25.104240
0.001950	512.790698	33.024635
0.001973	506.896552	39.391556
0.001995	501.136364	43.771999
0.002018	495.505618	45.845383
0.002041	490.000000	45.416592
0.002063	484.615385	42.435036
0.002086	479.347826	37.012386
0.002109	474.193548	29.393847
0.002132	469.148936	19.962145
0.002154	464.210526	9.208815
0.002177	459.375000	-2.278380
0.002200	454.639175	-13.869445
0.002222	450.000000	-24.911463
0.002245	445.454545	-34.771713
0.002268	441.000000	-42.880066
0.002290	436.633663	-48.753086
0.002313	432.352941	-52.045578
0.002336	428.155340	-52.486607
0.002358	424.038462	-50.003738
0.002381	420.000000	-44.719116
0.002404	416.037736	-36.908955
0.002426	412.149533	-26.984425
0.002449	408.333333	-15.498355
0.002472	404.587156	-3.084702
0.002494	400.909091	9.550196
0.002517	397.297297	21.693066
0.002540	393.750000	32.649914
0.002562	390.265487	41.803631
0.002585	386.842105	48.622524
0.002608	383.478261	52.726345
0.002630	380.172414	53.894211
0.002653	376.923077	52.062683
0.002676	373.728814	47.346066
0.002698	370.588235	40.045761
0.002721	367.500000	30.596132
0.002744	364.462810	19.557110
0.002766	361.475410	7.562823
0.002789	358.536585	-4.695485
0.002812	355.645161	-16.505064
0.002834	352.800000	-27.189371
0.002857	350.000000	-36.148216
0.002880	347.244094	-42.893658
0.002902	344.531250	-47.085285
0.002925	341.860465	-48.528755
0.002948	339.230769	-47.214592
0.002971	336.641221	-43.276150
0.002993	334.090909	-37.022358
0.003016	331.578947	-28.879959
0.003039	329.104478	-19.377996
0.003061	326.666667	-9.111344
0.003084	324.264706	1.295182
0.003107	321.897810	11.237991
0.003129	319.565217	20.147104
0.003152	317.266187	27.555225
0.003175	315.000000	33.089546
0.003197	312.765957	36.519348
0.003220	310.563380	37.761703
0.003243	308.391608	36.844189
0.003265	306.250000	33.903797
0.003288	304.137931	29.223482
0.003311	302.054795	23.173714
0.003333	300.000000	16.186514
0.003356	297.972973	8.721093
0.003379	295.973154	1.254578
0.003401	294.000000	-5.772713
0.003424	292.052980	-11.977428
0.003447	290.131579	-17.051182
0.003469	288.235294	-20.773666
0.003492	286.363636	-23.036549
0.003515	284.516129	-23.818092
0.003537	282.692308	-23.202646
0.003560	280.891720	-21.346941
0.003583	279.113924	-18.482300
0.003605	277.358491	-14.876642
0.003628	275.625000	-10.827061
0.003651	273.913043	-6.628644
0.003673	272.222222	-2.557287
0.003696	270.552147	1.159544
0.003719	268.902439	4.339763
0.003741	267.272727	6.863165
0.003764	265.662651	8.652999
0.003787	264.071856	9.711927
0.003810	262.500000	10.080842
0.003832	260.946746	9.856477
0.003855	259.411765	9.160690
0.003878	257.894737	8.140359
0.003900	256.395349	6.940380
0.003923	254.913295	5.704855
0.003946	253.448276	4.546397
0.003968	252.000000	3.560723
0.003991	250.568182	2.796790
0.004014	249.152542	2.274006
0.004036	247.752809	1.970249
0.004059	246.368715	1.840659
0.004082	245.000000	1.807051
0.004104	243.646409	1.789986
0.004127	242.307692	1.683184
0.004150	240.983607	1.400497
0.004172	239.673913	0.873473
0.004195	238.378378	0.079930
0.004218	237.096774	-0.992088
0.004240	235.828877	-2.305855
0.004263	234.574468	-3.800948
0.004286	233.333333	-5.382490
0.004308	232.105263	-6.937731
0.004331	230.890052	-8.336761
0.004354	229.687500	-9.451195
0.004376	228.497409	-10.155667
0.004399	227.319588	-10.351448
0.004422	226.153846	-9.962815
0.004444	225.000000	-8.955634
0.004467	223.857868	-7.330888
0.004490	222.727273	-5.143415
0.004512	221.608040	-2.482072
0.004535	220.500000	0.516947
0.004558	219.402985	3.693108
0.004580	218.316832	6.863656
0.004603	217.241379	9.850345
0.004626	216.176471	12.432830
0.004649	215.121951	14.424640
0.004671	214.077670	15.679300
0.004694	213.043478	16.085028
0.004717	212.019231	15.581893
0.004739	211.004785	14.171892
0.004762	210.000000	11.906334
0.004785	209.004739	8.899775
0.004807	208.018868	5.306488
0.004830	207.042254	1.329065
0.004853	206.074766	-2.807346
0.004875	205.116279	-6.859828
0.004898	204.166667	-10.587237
0.004921	203.225806	-13.765631
0.004943	202.293578	-16.203108
0.004966	201.369863	-17.748888
0.004989	200.454545	-18.310242
0.005011	199.547511	-17.825142
0.005034	198.648649	-16.321367
0.005057	197.757848	-13.901443
0.005079	196.875000	-10.698055
0.005102	196.000000	-6.892244
0.005125	195.132743	-2.714526
0.005147	194.273128	1.594439
0.005170	193.421053	5.776917
0.005193	192.576419	9.597803
0.005215	191.739130	12.832908
0.005238	190.909091	15.309295
0.005261	190.086207	16.889925
0.005283	189.270386	17.502180
0.005306	188.461538	17.125998
0.005329	187.659574	15.800714
0.005351	186.864407	13.623271
0.005374	186.075949	10.740075
0.005397	185.294118	7.329681
0.005420	184.518828	3.602287
0.005442	183.750000	-0.220079
0.005465	182.987552	-3.917202
0.005488	182.231405	-7.285111
0.005510	181.481481	-10.148032
0.005533	180.737705	-12.361630
0.005556	180.000000	-13.812624
0.005578	179.268293	-14.447744
0.005601	178.542510	-14.257597
0.005624	177.822581	-13.288776
0.005646	177.108434	-11.622977
0.005669	176.400000	-9.387571
0.005692	175.697211	-6.731111
0.005714	175.000000	-3.827508
0.005737	174.308300	-0.845121
0.005760	173.622047	2.039318
0.005782	172.941176	4.679259
0.005805	172.265625	6.937069
0.005828	171.595331	8.698890
0.005850	170.930233	9.883479
0.005873	170.270270	10.464311
0.005896	169.615385	10.447584
0.005918	168.965517	9.874192
0.005941	168.320611	8.815030
0.005964	167.680608	7.374145
0.005986	167.045455	5.657259
0.006009	166.415094	3.772476
0.006032	165.789474	1.834665
0.006054	165.168539	-0.045133
0.006077	164.552239	-1.772317
0.006100	163.940520	-3.267556
0.006122	163.333333	-4.474954
0.006145	162.730627	-5.356812
0.006168	162.132353	-5.902452
0.006190	161.538462	-6.114513
0.006213	160.948905	-6.021053
0.006236	160.363636	-5.658311
0.006259	159.782609	-5.076603
0.006281	159.205776	-4.332294
0.006304	158.633094	-3.477700
0.006327	158.064516	-2.567146
0.006349	157.500000	-1.649170
0.006372	156.939502	-0.762952
0.006395	156.382979	0.058242
0.006417	155.830389	0.795228
0.006440	155.281690	1.437438
0.006463	154.736842	1.979795
0.006485	154.195804	2.417702
0.006508	153.658537	2.759781
0.006531	153.125000	3.006841
0.006553	152.595156	3.170219
0.006576	152.068966	3.253085
0.006599	151.546392	3.264669
0.006621	151.027397	3.201475
0.006644	150.511945	3.067641
0.006667	150.000000	2.860715
0.006689	149.491525	2.573880
0.006712	148.986486	2.208216
0.006735	148.484848	1.765788
0.006757	147.986577	1.245730
0.006780	147.491639	0.659643
0.006803	147.000000	0.014699
0.006825	146.511628	-0.664491
0.006848	146.026490	-1.359723
0.006871	145.544554	-2.039982
0.006893	145.065789	-2.680926
0.006916	144.590164	-3.238610
0.006939	144.117647	-3.675078
0.006961	143.648208	-3.960808
0.006984	143.181818	-4.073139
0.007007	142.718447	-3.993036
0.007029	142.258065	-3.716075
0.007052	141.800643	-3.244605
0.007075	141.346154	-2.596920
0.007098	140.894569	-1.796539
0.007120	140.445860	-0.882586
0.007143	140.000000	0.102914
0.007166	139.556962	1.106817
0.007188	139.116719	2.078142
0.007211	138.679245	2.961650
0.007234	138.244514	3.709321
0.007256	137.812500	4.277408
0.007279	137.383178	4.632533
0.007302	136.956522	4.751101
0.007324	136.532508	4.625222
0.007347	136.111111	4.258065
0.007370	135.692308	3.666902
0.007392	135.276074	2.881545
0.007415	134.862385	1.945103
0.007438	134.451220	0.907757
0.007460	134.042553	-0.171667
0.007483	133.636364	-1.235792
0.007506	133.232628	-2.223883
0.007528	132.831325	-3.085413
0.007551	132.432432	-3.771730
0.007574	132.035928	-4.250979
0.007596	131.641791	-4.495542
0.007619	131.250000	-4.499597
0.007642	130.860534	-4.262435
0.007664	130.473373	-3.804334
0.007687	130.088496	-3.150398
0.007710	129.705882	-2.342702
0.007732	129.325513	-1.426082
0.007755	128.947368	-0.453926
0.007778	128.571429	0.521198
0.007800	128.197674	1.448590
0.007823	127.826087	2.281194
0.007846	127.456647	2.972122
0.007868	127.089337	3.490328
0.007891	126.724138	3.808717
0.007914	126.361032	3.918219
0.007937	126.000000	3.815977
0.007959	125.641026	3.514904
0.007982	125.284091	3.035042
0.008005	124.929178	2.410180
0.008027	124.576271	1.677254
0.008050	124.225352	0.881868
0.008073	123.876404	0.066604
0.008095	123.529412	-0.721469
0.008118	123.184358	-1.442641
0.008141	122.841226	-2.056571
0.008163	122.500000	-2.537486
0.008186	122.160665	-2.861992
0.008209	121.823204	-3.021736
0.008231	121.487603	-3.011991
0.008254	121.153846	-2.844227
0.008277	120.821918	-2.528233
0.008299	120.491803	-2.089533
0.008322	120.163488	-1.555732
0.008345	119.836957	-0.962723
0.008367	119.512195	-0.343549
0.008390	119.189189	0.262960
0.008413	118.867925	0.826267
0.008435	118.548387	1.314454
0.008458	118.230563	1.706737
0.008481	117.914439	1.983488
0.008503	117.600000	2.138710
0.008526	117.287234	2.168631
0.008549	116.976127	2.080824
0.008571	116.666667	1.886369
0.008594	116.358839	1.605425
0.008617	116.052632	1.257174
0.008639	115.748031	0.868873
0.008662	115.445026	0.463786
0.008685	115.143603	0.066705
0.008707	114.843750	-0.301336
0.008730	114.545455	-0.619853
0.008753	114.248705	-0.876372
0.008776	113.953488	-1.061230
0.008798	113.659794	-1.173232
0.008821	113.367609	-1.212802
0.008844	113.076923	-1.186907
0.008866	112.787724	-1.103107
0.008889	112.500000	-0.975345
0.008912	112.213740	-0.814008
0.008934	111.928934	-0.634849
0.008957	111.645570	-0.447348
0.008980	111.363636	-0.265722
0.009002	111.083123	-0.095776
0.009025	110.804020	0.052196
0.009048	110.526316	0.176756
0.009070	110.250000	0.273405
0.009093	109.975062	0.345904
0.009116	109.701493	0.394758
0.009138	109.429280	0.425252
0.009161	109.158416	0.441020
0.009184	108.888889	0.449140
0.009206	108.620690	0.451584
0.009229	108.353808	0.450211
0.009252	108.088235	0.444884
0.009274	107.823961	0.437636
0.009297	107.560976	0.425932
0.009320	107.299270	0.408771
0.009342	107.038835	0.380550
0.009365	106.779661	0.341661
0.009388	106.521739	0.286475
0.009410	106.265060	0.215967
0.009433	106.009615	0.127395
0.009456	105.755396	0.025498
0.009478	105.502392	-0.089549
0.009501	105.250597	-0.209188
0.009524	105.000000	-0.331838
0.009546	104.750594	-0.446083
0.009569	104.502370	-0.548617
0.009592	104.255319	-0.626913
0.009615	104.009434	-0.677854
0.009637	103.764706	-0.693627
0.009660	103.521127	-0.671874
0.009683	103.278689	-0.607822
0.009705	103.037383	-0.504061
0.009728	102.797203	-0.363708
0.009751	102.558140	-0.197064
0.009773	102.320186	-0.010077
0.009796	102.083333	0.181501
0.009819	101.847575	0.369138
0.009841	101.612903	0.536988
0.009864	101.379310	0.676188
0.009887	101.146789	0.774722
0.009909	100.915332	0.826622
0.009932	100.684932	0.826547
0.009955	100.455581	0.776278
0.009977	100.227273	0.674088
0.010000	100.000000	0.530004
0.010023	99.773756	0.349122
0.010045	99.548533	0.147835
0.010068	99.324324	-0.064608
0.010091	99.101124	-0.271428
0.010113	98.878924	-0.463665
0.010136	98.657718	-0.625604
0.010159	98.437500	-0.746890
0.010181	98.218263	-0.817889
0.010204	98.000000	-0.835371
0.010227	97.782705	-0.795846
0.010249	97.566372	-0.705652
0.010272	97.350993	-0.567292
0.010295	97.136564	-0.393858
0.010317	96.923077	-0.195763
0.010340	96.710526	0.011199
0.010363	96.498906	0.214474
0.010385	96.288210	0.397806
0.010408	96.078431	0.552464
0.010431	95.869565	0.664692
0.010454	95.661605	0.731116
0.010476	95.454545	0.743653
0.010499	95.248380	0.706945
0.010522	95.043103	0.620807
0.010544	94.838710	0.495963
0.010567	94.635193	0.340748
0.010590	94.432548	0.165518
0.010612	94.230769	-0.019872
0.010635	94.029851	-0.199553
0.010658	93.829787	-0.364293
0.010680	93.630573	-0.500631
0.010703	93.432203	-0.601744
0.010726	93.234672	-0.659142
0.010748	93.037975	-0.671896
0.010771	92.842105	-0.637482
0.010794	92.647059	-0.560891
0.010816	92.452830	-0.446316
0.010839	92.259414	-0.306722
0.010862	92.066806	-0.150058
0.010884	91.875000	0.011320
0.010907	91.683992	0.170718
0.010930	91.493776	0.313495
0.010952	91.304348	0.434856
0.010975	91.115702	0.522490
0.010998	90.927835	0.576198
0.011020	90.740741	0.592081
0.011043	90.554415	0.573397
0.011066	90.368852	0.518278
0.011088	90.184049	0.434295
0.011111	90.000000	0.324160
0.011134	89.816701	0.197232
0.011156	89.634146	0.059536
0.011179	89.452333	-0.079129
0.011202	89.271255	-0.212215
0.011224	89.090909	-0.330696
0.011247	88.911290	-0.429516
0.011270	88.732394	-0.502047
0.011293	88.554217	-0.545830
0.011315	88.376754	-0.557139
0.011338	88.200000	-0.537103
0.011361	88.023952	-0.485221
0.011383	87.848606	-0.407319
0.011406	87.673956	-0.305336
0.011429	87.500000	-0.187691
0.011451	87.326733	-0.058205
0.011474	87.154150	0.071827
0.011497	86.982249	0.199215
0.011519	86.811024	0.314233
0.011542	86.640472	0.412907
0.011565	86.470588	0.487684
0.011587	86.301370	0.535420
